##BLOCKS= 10         
Note:~End
Plate:	HCC1395 BYL719/nothing	1.3	PlateFormat	Endpoint	Absorbance	Raw	FALSE	1						1	570	1	11	96	2	6	None	
	Temperature(¡C)	1	2	3	4	5	6	7	8	9	10	11	12		
	26.40														
		0.0461	0.2095	0.4141	0.5442	0.6086	0.626	0.6377	0.6584	0.622	0.6494	0.6211			
		0.0466	0.202	0.4598	0.5852	0.5992	0.6731	0.7152	0.6887	0.6303	0.6734	0.6805			
		0.0459	0.1941	0.4022	0.561	0.6446	0.7819	0.8426	0.8344	0.7143	0.6524	0.6362			
		0.0461	0.0844	0.1089	0.2425	0.2828	0.2874	0.4371	0.7188	0.6541	0.6075	0.6254			
		0.0463	0.083	0.1063	0.132	0.1652	0.2579	0.4208	0.4893	0.6441	0.609	0.6019			
		0.0459	0.085	0.1044	0.1304	0.148	0.2442	0.4001	0.4826	0.6174	0.6255	0.6			
															
		
~End
Plate:	HCC202 BYL719/nothing	1.3	PlateFormat	Endpoint	Absorbance	Raw	FALSE	1						1	570	1	11	96	2	6	None	
	Temperature(¡C)	1	2	3	4	5	6	7	8	9	10	11	12		
	26.50														
		0.0451	0.0915	0.1065	0.1378	0.1707	0.2722	0.4041	0.4643	0.4984	0.5806	0.4766			
		0.0473	0.0946	0.1034	0.1319	0.1667	0.3121	0.4923	0.515	0.586	0.5099	0.483			
		0.0451	0.0928	0.1102	0.1473	0.1831	0.2706	0.4863	0.5759	0.5486	0.5157	0.5087			
		0.0439	0.0872	0.0862	0.1033	0.1674	0.324	0.3414	0.4851	0.5584	0.5509	0.4991			
		0.0466	0.0898	0.0901	0.1035	0.149	0.3175	0.3228	0.4713	0.5324	0.5109	0.4774			
		0.066	0.086	0.0882	0.1036	0.1501	0.2667	0.3089	0.42	0.4664	0.5315	0.5085			
															
		
~End
Plate:	ZR751 BYL719/nothing	1.3	PlateFormat	Endpoint	Absorbance	Raw	FALSE	1						1	570	1	11	96	2	6	None	
	Temperature(¡C)	1	2	3	4	5	6	7	8	9	10	11	12		
	26.50														
		0.0459	0.2195	0.58	1.0808	1.5981	1.7758	1.9482	1.9181	1.9642	1.8897	1.8568			
		0.0456	0.2014	0.6417	1.3971	1.7071	1.9292	1.9999	2.0219	2.1007	2.0459	2.0178			
		0.0458	0.1867	0.6765	1.1864	1.6097	1.9158	2.0033	2.0291	2.0154	2.0728	2.0494			
		0.0459	0.1334	0.0969	0.4041	0.6964	1.0964	1.2871	1.6219	1.7937	1.8601	1.9992			
		0.0455	0.128	0.1031	0.4141	0.7169	1.0804	1.3183	1.6766	1.8617	1.8546	1.9792			
		0.0456	0.1416	0.1059	0.3486	0.5558	0.9311	1.1608	1.5668	1.7339	1.8954	1.898			
															
		
~End
Plate:	HCC3153 BYL719/nothing	1.3	PlateFormat	Endpoint	Absorbance	Raw	FALSE	1						1	570	1	11	96	2	6	None	
	Temperature(¡C)	1	2	3	4	5	6	7	8	9	10	11	12		
	26.50														
		0.0449	0.3578	0.6422	0.7028	1.0045	1.0435	1.1289	0.9722	1.1228	1.1002	0.9385			
		0.0443	0.3435	0.6545	1.0041	0.9779	1.2011	1.1242	1.0748	1.2037	1.1755	1.0069			
		0.0449	0.3113	0.587	0.7875	0.9926	0.9181	1.2592	1.211	1.0545	1.1139	0.777			
		0.0452	0.0786	0.0928	0.1054	0.2652	0.5401	0.7905	0.9496	0.8526	0.8367	0.8524			
		0.0451	0.0756	0.0901	0.1106	0.2758	0.4965	0.7535	0.9642	0.8878	0.8638	0.935			
		0.0456	0.0759	0.0937	0.1024	0.2209	0.4003	0.5595	0.8542	0.7323	0.8787	0.9717			
															
		
~End
Plate:	EFM19 BYL719/nothing	1.3	PlateFormat	Endpoint	Absorbance	Raw	FALSE	1						1	570	1	11	96	2	6	None	
	Temperature(¡C)	1	2	3	4	5	6	7	8	9	10	11	12		
	26.50														
		0.0471	0.0857	0.1079	0.1453	0.1997	0.364	1.0052	1.3584	1.4341	1.8881	1.777			
		0.0456	0.0861	0.1064	0.1386	0.2415	0.4934	1.0258	1.4203	1.7167	1.9533	1.7082			
		0.0466	0.0846	0.1109	0.13	0.2326	0.4244	0.969	0.9327	1.6308	1.8911	1.689			
		0.0474	0.0847	0.0947	0.1636	0.2288	0.378	0.7912	1.6396	1.7329	1.7567	1.7892			
		0.0462	0.0823	0.0922	0.1477	0.2026	0.3497	0.6961	1.5807	1.7789	1.7851	1.7312			
		0.0466	0.0859	0.0972	0.1474	0.1933	0.2732	0.7673	1.4246	1.5962	1.67	1.7947			
															
		
~End
Plate:	HCC1143 BYL719/nothing	1.3	PlateFormat	Endpoint	Absorbance	Raw	FALSE	1						1	570	1	11	96	2	6	None	
	Temperature(¡C)	1	2	3	4	5	6	7	8	9	10	11	12		
	26.50														
		0.0463	0.3079	0.7527	1.066	1.1255	1.296	1.2764	1.1206	1.2107	1.1712	0.9801			
		0.0465	0.2976	0.9156	1.0879	1.1136	1.3096	1.3019	1.2985	1.2411	1.2987	1.3443			
		0.0453	0.2658	0.8811	0.9965	1.2039	1.2768	1.3736	1.2603	1.3449	1.3	1.2592			
		0.0457	0.111	0.0931	0.1556	0.3701	0.483	0.8223	1.1308	1.1168	1.0322	0.9506			
		0.047	0.1119	0.0877	0.1547	0.3516	0.4701	0.7788	1.1142	1.1445	1.0739	0.9762			
		0.0462	0.1089	0.0879	0.1636	0.2925	0.4152	0.8064	1.1168	1.0851	1.1156	0.9186			
															
		
~End
Plate:	UACC812 BYL719/nothing	1.3	PlateFormat	Endpoint	Absorbance	Raw	FALSE	1						1	570	1	11	96	2	6	None	
	Temperature(¡C)	1	2	3	4	5	6	7	8	9	10	11	12		
	26.50														
		0.044	0.0869	0.114	0.1958	0.3957	0.5704	0.9588	1.1763	1.1904	1.3002	1.0526			
		0.0437	0.0884	0.1177	0.2685	0.4615	0.7663	1.0417	1.217	1.3007	1.4974	1.2595			
		0.0439	0.0892	0.1117	0.2322	0.4499	0.7147	1.0281	1.05	1.3234	1.4051	1.1916			
		0.0458	0.0811	0.0817	0.1429	0.3	0.3493	0.4879	0.9201	1.0354	1.1608	1.1774			
		0.0454	0.0773	0.0858	0.1253	0.2952	0.3402	0.4504	1.0145	1.0548	1.2969	1.1997			
		0.0457	0.0801	0.0819	0.1341	0.2454	0.2837	0.3641	1.0597	1.0861	1.2851	1.0077			
															
		
~End
Plate:	HCC1937 BYL719/nothing	1.3	PlateFormat	Endpoint	Absorbance	Raw	FALSE	1						1	570	1	11	96	2	6	None	
	Temperature(¡C)	1	2	3	4	5	6	7	8	9	10	11	12		
	26.50														
		0.0454	0.2353	0.6093	0.7641	0.8984	1.0015	1.08	1.0712	0.9037	0.9401	0.8281			
		0.0472	0.2426	0.5921	0.9939	0.9648	1.0532	1.0522	1.2647	1.17	1.1562	0.9619			
		0.0458	0.222	0.6914	0.7935	0.9783	1.0744	1.1707	1.2461	1.1753	1.184	0.8519			
		0.0468	0.1093	0.0805	0.1449	0.4884	0.6166	0.958	1.1501	1.1609	1.0571	0.9804			
		0.0476	0.1169	0.0825	0.1367	0.4701	0.6233	0.8343	1.0158	1.041	1.0003	0.921			
		0.0442	0.1156	0.0836	0.1524	0.3601	0.5178	0.8159	0.9043	0.8879	0.8153	0.8837			
															
		
~End
Plate:	MDA134 BYL719/nothing	1.3	PlateFormat	Endpoint	Absorbance	Raw	FALSE	1						1	570	1	11	96	2	6	None	
	Temperature(¡C)	1	2	3	4	5	6	7	8	9	10	11	12		
	26.60														
		0.0451	0.3221	0.4112	0.4936	0.5633	0.614	0.6631	0.7047	0.6976	0.6995	0.5924			
		0.0453	0.3515	0.5052	0.6085	0.6978	0.6809	0.8121	0.8007	0.8069	0.8082	0.7105			
		0.0456	0.3487	0.5114	0.6411	0.6721	0.7218	0.7674	0.7324	0.7407	0.813	0.6907			
		0.0466	0.0947	0.096	0.1815	0.4315	0.753	0.7954	0.7926	0.8433	0.8263	0.7244			
		0.0467	0.1032	0.1014	0.2059	0.4617	0.7584	0.8066	0.9144	0.9691	0.8515	0.8035			
		0.0472	0.0965	0.0956	0.1691	0.3569	0.7157	0.6778	0.6927	0.75	0.6569	0.6686			
															
		
~End
Instrument type: Instrument serial number:
