##BLOCKS= 5          
Note:~End
Plate:	HBL100 nothing/herceptin	1.3	PlateFormat	Endpoint	Absorbance	Raw	FALSE	1						1	570	1	11	96	2	6	None	
	Temperature(¡C)	1	2	3	4	5	6	7	8	9	10	11	12		
	26.60														
		0.0444	0.2639	0.2611	0.2703	0.2507	0.3887	1.097	1.162	1.3058	1.3507	1.4422			
		0.0443	0.2494	0.2497	0.273	0.2322	0.4719	0.9058	1.1276	1.3043	1.479	1.5984			
		0.0445	0.2587	0.264	0.4625	0.5102	0.593	1.0502	1.1996	1.4818	1.4854	1.4221			
		0.0446	1.777	1.2878	1.5501	1.5441	1.5996	1.3751	1.5253	1.4432	1.4936	1.435			
		0.0454	1.4973	1.5055	1.6533	1.5112	1.3478	1.5464	1.3627	1.4607	1.4313	1.2913			
		0.0457	1.3084	1.4864	1.5956	1.3994	1.5909	1.6274	1.5278	1.4725	1.535	1.4992			
															
		
~End
Plate:	DU145 nothing/herceptin	1.3	PlateFormat	Endpoint	Absorbance	Raw	FALSE	1						1	570	1	11	96	2	6	None	
	Temperature(¡C)	1	2	3	4	5	6	7	8	9	10	11	12		
	26.70														
		0.0439	0.1445	0.122	0.0939	0.0967	0.1099	0.5057	1.0289	1.6338	1.6735	1.7301			
		0.045	0.1489	0.1145	0.0986	0.0977	0.1104	0.5864	1.0415	1.7464	1.7719	1.7107			
		0.0449	0.1539	0.1129	0.0979	0.0973	0.111	0.5967	1.2326	1.7199	1.8105	1.7429			
		0.0458	1.6185	1.7228	1.7931	1.8044	1.7773	1.766	1.7911	1.7927	1.7367	1.7076			
		0.0447	1.6909	1.8074	1.7747	1.8417	1.8666	1.8156	1.7801	1.8596	1.8236	1.7819			
		0.0439	1.6001	1.6643	1.7576	1.7307	1.7908	1.7473	1.7769	1.7597	1.7538	1.7568			
															
		
~End
Plate:	T47D nothing/herceptin	1.3	PlateFormat	Endpoint	Absorbance	Raw	FALSE	1						1	570	1	11	96	2	6	None	
	Temperature(¡C)	1	2	3	4	5	6	7	8	9	10	11	12		
	26.70														
		0.045	0.1672	0.1914	0.1901	0.2282	0.4106	0.6711	1.0667	1.1898	1.6106	1.4595			
		0.0496	0.1897	0.2131	0.2086	0.2532	0.4782	0.7597	1.1061	1.3542	1.7014	1.8744			
		0.0442	0.1976	0.2451	0.2302	0.2408	0.4373	0.7578	1.138	1.4164	1.584	1.8986			
		0.0449	0.6571	0.9441	1.1356	1.2798	1.3741	1.3554	1.3622	1.4308	1.5859	1.9344			
		0.0462	0.6002	1.0187	1.2711	1.4163	1.5516	1.4444	1.4736	1.4622	1.937	1.9774			
		0.044	0.6508	0.9173	1.3262	1.4672	1.505	1.6331	1.509	1.5459	1.5968	1.9624			
															
		
~End
Plate:	MA CLS 2 nothing/herceptin	1.3	PlateFormat	Endpoint	Absorbance	Raw	FALSE	1						1	570	1	11	96	2	6	None	
	Temperature(¡C)	1	2	3	4	5	6	7	8	9	10	11	12		
	26.70														
		0.0449	0.1685	0.0975	0.0806	0.0835	0.094	0.1638	0.2518	0.6819	1.2784	1.9735			
		0.045	0.169	0.1001	0.0925	0.0878	0.0942	0.1707	0.2195	0.7464	1.4539	2.0129			
		0.0448	0.1676	0.1024	0.0901	0.0901	0.0966	0.1805	0.2009	0.7303	1.3975	2.0191			
		0.0454	1.4753	1.8338	1.8391	1.8885	1.7932	1.8757	1.8099	1.5691	1.4785	1.2555			
		0.0457	1.4217	1.4198	1.8292	1.4696	1.8306	1.5507	1.851	1.9005	1.8716	1.2023			
		0.0452	1.3149	1.8591	1.7749	1.8184	1.401	1.8489	1.842	1.8345	1.8933	1.4501			
															
		
~End
Instrument type: Instrument serial number:
