##BLOCKS= 5          
Note:~End
Plate:	DU145 paclitaxel/nothing	1.3	PlateFormat	Endpoint	Absorbance	Raw	FALSE	1						1	570	1	11	96	2	6	None	
	Temperature(¡C)	1	2	3	4	5	6	7	8	9	10	11	12		
	26.60														
		0.0453	0.1115	0.4366	1.4025	1.5318	1.54	1.5787	1.5435	1.5863	1.6095	1.5859			
		0.0464	0.1062	0.3689	1.6273	1.9054	1.91	1.8876	1.904	1.9389	1.7746	1.6406			
		0.0445	0.1037	0.4313	1.5386	1.9114	2.0008	1.8467	1.8274	2.0762	1.9198	1.6291			
		0.0458	0.1049	0.1529	0.3451	0.7752	1.5554	1.8499	1.9676	1.9792	1.9389	1.5524			
		0.0462	0.1046	0.1244	0.2989	0.883	1.5568	1.9233	1.9848	1.9826	1.9285	1.598			
		0.0459	0.1092	0.1366	0.3606	0.8736	1.3262	1.4861	1.521	1.6011	1.5675	1.5937			
															
		
~End
Plate:	T47D paclitaxel/nothing	1.3	PlateFormat	Endpoint	Absorbance	Raw	FALSE	1						1	570	1	11	96	2	6	None	
	Temperature(¡C)	1	2	3	4	5	6	7	8	9	10	11	12		
	26.60														
		0.0437	0.2215	0.3891	1.1434	1.2314	1.3769	1.2676	1.3669	1.4411	1.4644	1.6706			
		0.0447	0.2241	0.4643	1.5334	1.5659	1.7845	1.6509	1.7632	1.9099	1.9925	1.8378			
		0.0441	0.2335	0.4376	1.5378	1.6608	1.8275	1.6761	1.7515	1.8241	1.874	1.8614			
		0.0447	0.7935	0.4697	0.304	0.422	1.5096	1.4912	1.7157	1.8089	1.7348	1.6898			
		0.0455	0.8204	0.5492	0.2705	0.4325	1.5293	1.7686	1.8277	1.765	1.9027	1.7846			
		0.0472	0.8255	0.4187	0.3163	0.4107	1.213	1.1171	1.1172	1.1635	1.3547	1.7401			
															
		
~End
Plate:	HBL100 paclitaxel/nothing	1.3	PlateFormat	Endpoint	Absorbance	Raw	FALSE	1						1	570	1	11	96	2	6	None	
	Temperature(¡C)	1	2	3	4	5	6	7	8	9	10	11	12		
	26.60														
		0.0452	0.1151	0.1502	0.7325	1.5246	1.1234	1.5523	1.2089	1.3561	1.502	1.2533			
		0.0441	0.1395	0.1508	0.8646	1.5716	1.5285	1.7863	1.5917	1.7657	1.6997	1.4502			
		0.044	0.1294	0.1902	1.2119	1.4995	1.5132	1.6529	1.8547	1.7449	1.7712	1.389			
		0.0438	0.101	0.1145	0.123	0.168	0.6019	1.4775	1.5989	1.2303	1.7199	1.2356			
		0.0438	0.108	0.1204	0.1313	0.1636	0.4766	1.6014	1.5579	1.6774	1.8649	1.5347			
		0.0443	0.1112	0.128	0.1386	0.1802	0.5275	1.2705	1.625	1.4267	1.4231	1.4769			
															
		
~End
Plate:	MA CLS 2 paclitaxel/nothing	1.3	PlateFormat	Endpoint	Absorbance	Raw	FALSE	1						1	570	1	11	96	2	6	None	
	Temperature(¡C)	1	2	3	4	5	6	7	8	9	10	11	12		
	26.70														
		0.045	0.1201	0.3448	1.4928	2.011	1.9719	1.9046	1.9339	1.8594	1.912	1.8039			
		0.0476	0.1145	0.3827	1.627	1.9826	2.0211	2.0446	1.9722	1.9553	1.9268	2.0332			
		0.0448	0.1012	0.3059	1.8091	1.9463	2.1151	2.0807	1.9956	1.836	1.976	1.9423			
		0.0455	0.1501	0.1808	0.4149	0.9458	1.3791	1.7524	1.3564	1.3334	1.1179	1.1718			
		0.0465	0.151	0.1475	0.4954	0.9232	1.5861	1.4856	1.9089	1.808	1.2103	1.9601			
		0.0452	0.1503	0.1552	0.3359	0.7583	1.1349	2.0516	2.0953	2.0735	1.151	1.8934			
															
		
~End
Instrument type: Instrument serial number:
